> PdiffPdiff at  1762.79 seconds at   225.00 degrees for a     10.0 km deep source in the iasp91 model with rayParam    4.439 s/deg.
   -0.00    6361.0
   -0.00    6361.0
   -0.01    6356.0
   -0.02    6351.0
   -0.02    6350.1
   -0.03    6349.1
   -0.03    6347.3
   -0.04    6343.5
   -0.06    6336.0
   -0.06    6334.7
   -0.07    6333.3
   -0.07    6330.7
   -0.09    6325.4
   -0.11    6320.1
   -0.12    6314.8
   -0.16    6304.1
   -0.19    6293.5
   -0.20    6290.0
   -0.23    6280.2
   -0.26    6270.5
   -0.32    6251.0
   -0.33    6249.2
   -0.34    6247.4
   -0.35    6243.8
   -0.37    6236.5
   -0.42    6222.6
   -0.46    6208.5
   -0.47    6207.2
   -0.47    6206.0
   -0.51    6193.2
   -0.55    6180.3
   -0.62    6161.0
   -0.63    6157.3
   -0.64    6153.7
   -0.68    6142.0
   -0.73    6130.2
   -0.79    6111.0
   -0.80    6108.8
   -0.81    6106.6
   -0.85    6094.8
   -0.87    6088.8
   -0.89    6082.8
   -0.93    6072.0
   -0.97    6061.0
   -0.98    6059.9
   -0.98    6058.8
   -1.03    6046.8
   -1.05    6040.7
   -1.07    6034.6
   -1.12    6022.9
   -1.16    6011.0
   -1.16    6010.6
   -1.16    6010.2
   -1.21    5998.0
   -1.24    5991.8
   -1.26    5985.6
   -1.31    5973.3
   -1.36    5961.0
   -1.37    5957.4
   -1.39    5953.8
   -1.42    5946.5
   -1.48    5932.6
   -1.54    5918.6
   -1.57    5911.0
   -1.66    5890.3
   -1.79    5861.7
   -1.79    5861.0
   -1.92    5832.7
   -2.03    5811.0
   -2.06    5803.3
   -2.21    5773.4
   -2.27    5761.0
   -2.35    5743.1
   -2.51    5712.3
   -2.52    5711.0
   -2.53    5708.9
   -2.54    5706.8
   -2.56    5702.6
   -2.61    5694.1
   -2.70    5677.6
   -2.80    5661.0
   -2.81    5657.9
   -2.83    5654.9
   -2.95    5635.0
   -3.06    5615.0
   -3.09    5611.0
   -3.22    5588.6
   -3.36    5566.0
   -3.37    5563.8
   -3.38    5561.5
   -3.51    5540.8
   -3.64    5520.0
   -3.69    5512.0
   -3.94    5473.0
   -4.01    5462.5
   -4.25    5425.1
   -4.26    5424.3
   -4.26    5423.6
   -4.27    5422.1
   -4.29    5419.0
   -4.31    5416.0
   -4.33    5413.0
   -4.38    5406.9
   -4.42    5400.7
   -4.46    5394.5
   -4.50    5388.3
   -4.59    5375.9
   -4.67    5363.5
   -4.76    5351.2
   -4.84    5338.8
   -4.93    5326.4
   -5.02    5314.0
   -5.20    5289.3
   -5.38    5264.5
   -5.56    5239.8
   -5.75    5215.0
   -5.94    5190.3
   -6.14    5165.5
   -6.35    5138.2
   -6.37    5136.8
   -6.38    5135.5
   -6.40    5132.7
   -6.44    5127.1
   -6.53    5116.0
   -6.74    5091.3
   -6.95    5066.5
   -7.02    5057.7
   -7.37    5017.0
   -7.72    4977.2
   -7.81    4967.5
   -8.27    4918.0
   -8.47    4896.6
   -8.74    4868.5
   -9.23    4819.0
   -9.26    4816.1
   -9.74    4769.5
  -10.10    4735.7
  -10.27    4720.0
  -10.81    4670.5
  -10.98    4655.6
  -11.38    4621.0
  -11.92    4575.9
  -11.98    4571.5
  -12.60    4522.0
  -12.92    4496.6
  -13.11    4482.6
  -13.24    4472.5
  -13.92    4423.0
  -13.99    4417.8
  -14.62    4373.5
  -15.13    4339.5
  -15.13    4339.4
  -15.36    4324.0
  -16.14    4274.5
  -16.34    4261.9
  -16.95    4225.0
  -17.50    4193.1
  -17.65    4184.8
  -17.81    4175.5
  -18.72    4126.0
  -19.06    4108.5
  -19.69    4076.5
  -20.35    4044.1
  -20.59    4032.8
  -20.71    4027.0
  -21.26    4002.3
  -21.81    3977.5
  -22.27    3957.9
  -22.99    3928.0
  -23.89    3892.6
  -24.13    3883.7
  -24.27    3878.5
  -24.96    3853.8
  -25.66    3829.0
  -26.21    3810.4
  -27.19    3779.5
  -27.88    3759.2
  -28.58    3739.0
  -28.62    3737.7
  -28.90    3730.0
  -29.88    3705.3
  -30.86    3680.5
  -31.50    3665.8
  -32.34    3648.4
  -33.18    3631.0
  -33.78    3619.7
  -34.41    3608.4
  -35.08    3597.0
  -35.76    3585.7
  -36.04    3581.3
  -36.68    3571.7
  -37.47    3561.7
  -38.25    3551.7
  -39.04    3541.7
  -39.83    3531.7
  -40.83    3523.3
  -41.83    3514.9
  -42.82    3506.6
  -43.82    3498.2
  -44.71    3495.5
  -45.61    3492.8
  -46.50    3490.1
  -47.39    3487.4
  -48.29    3484.7
  -49.18    3482.0
  -50.12    3482.0
  -51.06    3482.0
  -52.00    3482.0
  -52.94    3482.0
  -53.88    3482.0
  -54.82    3482.0
  -55.76    3482.0
  -56.70    3482.0
  -57.65    3482.0
  -58.59    3482.0
  -59.53    3482.0
  -60.47    3482.0
  -61.41    3482.0
  -62.35    3482.0
  -63.29    3482.0
  -64.18    3484.7
  -65.08    3487.4
  -65.97    3490.1
  -66.86    3492.8
  -67.75    3495.5
  -68.65    3498.2
  -69.64    3506.6
  -70.64    3514.9
  -71.64    3523.3
  -72.64    3531.7
  -73.42    3541.7
  -74.21    3551.7
  -75.00    3561.7
  -75.79    3571.7
  -76.43    3581.3
  -76.71    3585.7
  -77.38    3597.0
  -78.06    3608.4
  -78.69    3619.7
  -79.29    3631.0
  -80.12    3648.4
  -80.96    3665.8
  -81.61    3680.5
  -82.59    3705.3
  -83.57    3730.0
  -83.85    3737.7
  -83.89    3739.0
  -84.59    3759.2
  -85.28    3779.5
  -86.25    3810.4
  -86.81    3829.0
  -87.51    3853.8
  -88.20    3878.5
  -88.34    3883.7
  -88.58    3892.6
  -89.48    3928.0
  -90.20    3957.9
  -90.66    3977.5
  -91.21    4002.3
  -91.75    4027.0
  -91.88    4032.8
  -92.12    4044.1
  -92.78    4076.5
  -93.41    4108.5
  -93.75    4126.0
  -94.65    4175.5
  -94.82    4184.8
  -94.97    4193.1
  -95.52    4225.0
  -96.13    4261.9
  -96.33    4274.5
  -97.11    4324.0
  -97.34    4339.4
  -97.34    4339.5
  -97.85    4373.5
  -98.48    4417.8
  -98.55    4423.0
  -99.23    4472.5
  -99.36    4482.6
  -99.54    4496.6
  -99.87    4522.0
 -100.49    4571.5
 -100.54    4575.9
 -101.08    4621.0
 -101.48    4655.6
 -101.65    4670.5
 -102.20    4720.0
 -102.37    4735.7
 -102.73    4769.5
 -103.21    4816.1
 -103.24    4819.0
 -103.73    4868.5
 -104.00    4896.6
 -104.20    4918.0
 -104.66    4967.5
 -104.74    4977.2
 -105.10    5017.0
 -105.45    5057.7
 -105.52    5066.5
 -105.73    5091.3
 -105.93    5116.0
 -106.02    5127.1
 -106.07    5132.7
 -106.09    5135.5
 -106.10    5136.8
 -106.11    5138.2
 -106.33    5165.5
 -106.52    5190.3
 -106.71    5215.0
 -106.90    5239.8
 -107.09    5264.5
 -107.27    5289.3
 -107.45    5314.0
 -107.54    5326.4
 -107.62    5338.8
 -107.71    5351.2
 -107.80    5363.5
 -107.88    5375.9
 -107.97    5388.3
 -108.01    5394.5
 -108.05    5400.7
 -108.09    5406.9
 -108.13    5413.0
 -108.15    5416.0
 -108.17    5419.0
 -108.19    5422.1
 -108.20    5423.6
 -108.21    5424.3
 -108.21    5425.1
 -108.46    5462.5
 -108.53    5473.0
 -108.78    5512.0
 -108.83    5520.0
 -108.96    5540.8
 -109.08    5561.5
 -109.10    5563.8
 -109.11    5566.0
 -109.25    5588.6
 -109.38    5611.0
 -109.40    5615.0
 -109.52    5635.0
 -109.64    5654.9
 -109.65    5657.9
 -109.67    5661.0
 -109.77    5677.6
 -109.86    5694.1
 -109.90    5702.6
 -109.93    5706.8
 -109.94    5708.9
 -109.95    5711.0
 -109.96    5712.3
 -110.11    5743.1
 -110.20    5761.0
 -110.26    5773.4
 -110.41    5803.3
 -110.44    5811.0
 -110.54    5832.7
 -110.67    5861.0
 -110.68    5861.7
 -110.81    5890.3
 -110.90    5911.0
 -110.93    5918.6
 -110.99    5932.6
 -111.05    5946.5
 -111.08    5953.8
 -111.09    5957.4
 -111.11    5961.0
 -111.16    5973.3
 -111.21    5985.6
 -111.23    5991.8
 -111.26    5998.0
 -111.30    6010.2
 -111.30    6010.6
 -111.31    6011.0
 -111.35    6022.9
 -111.40    6034.6
 -111.42    6040.7
 -111.44    6046.8
 -111.49    6058.8
 -111.49    6059.9
 -111.49    6061.0
 -111.53    6072.0
 -111.57    6082.8
 -111.60    6088.8
 -111.62    6094.8
 -111.66    6106.6
 -111.67    6108.8
 -111.68    6111.0
 -111.74    6130.2
 -111.78    6142.0
 -111.82    6153.7
 -111.84    6157.3
 -111.85    6161.0
 -111.91    6180.3
 -111.96    6193.2
 -112.00    6206.0
 -112.00    6207.2
 -112.01    6208.5
 -112.05    6222.6
 -112.10    6236.5
 -112.12    6243.8
 -112.13    6247.4
 -112.14    6249.2
 -112.14    6251.0
 -112.21    6270.5
 -112.24    6280.2
 -112.27    6290.0
 -112.28    6293.5
 -112.31    6304.1
 -112.34    6314.8
 -112.36    6320.1
 -112.38    6325.4
 -112.39    6330.7
 -112.40    6333.3
 -112.41    6334.7
 -112.41    6336.0
 -112.43    6343.5
 -112.44    6347.3
 -112.44    6349.1
 -112.44    6350.1
 -112.45    6351.0
 -112.46    6356.0
 -112.47    6361.0
 -112.47    6361.0
 -112.48    6366.0
 -112.48    6368.5
 -112.49    6369.7
 -112.49    6371.0
 -112.49    6371.0
 -112.49    6371.0
 -112.49    6369.7
 -112.49    6368.5
 -112.50    6366.0
 -112.51    6361.0
 -112.51    6361.0
 -112.52    6356.0
 -112.53    6351.0
 -112.53    6350.1
 -112.54    6349.1
 -112.54    6347.3
 -112.55    6343.5
 -112.57    6336.0
 -112.57    6334.7
 -112.58    6333.3
 -112.59    6330.7
 -112.60    6325.4
 -112.62    6320.1
 -112.63    6314.8
 -112.67    6304.1
 -112.70    6293.5
 -112.71    6290.0
 -112.74    6280.2
 -112.77    6270.5
 -112.83    6251.0
 -112.84    6249.2
 -112.85    6247.4
 -112.86    6243.8
 -112.88    6236.5
 -112.93    6222.6
 -112.97    6208.5
 -112.98    6207.2
 -112.98    6206.0
 -113.02    6193.2
 -113.07    6180.3
 -113.13    6161.0
 -113.14    6157.3
 -113.16    6153.7
 -113.20    6142.0
 -113.24    6130.2
 -113.30    6111.0
 -113.31    6108.8
 -113.32    6106.6
 -113.36    6094.8
 -113.38    6088.8
 -113.40    6082.8
 -113.44    6072.0
 -113.48    6061.0
 -113.49    6059.9
 -113.49    6058.8
 -113.54    6046.8
 -113.56    6040.7
 -113.58    6034.6
 -113.63    6022.9
 -113.67    6011.0
 -113.67    6010.6
 -113.68    6010.2
 -113.72    5998.0
 -113.75    5991.8
 -113.77    5985.6
 -113.82    5973.3
 -113.87    5961.0
 -113.88    5957.4
 -113.90    5953.8
 -113.93    5946.5
 -113.99    5932.6
 -114.05    5918.6
 -114.08    5911.0
 -114.17    5890.3
 -114.30    5861.7
 -114.30    5861.0
 -114.43    5832.7
 -114.54    5811.0
 -114.57    5803.3
 -114.72    5773.4
 -114.78    5761.0
 -114.87    5743.1
 -115.02    5712.3
 -115.03    5711.0
 -115.04    5708.9
 -115.05    5706.8
 -115.07    5702.6
 -115.12    5694.1
 -115.21    5677.6
 -115.31    5661.0
 -115.33    5657.9
 -115.34    5654.9
 -115.46    5635.0
 -115.57    5615.0
 -115.60    5611.0
 -115.73    5588.6
 -115.87    5566.0
 -115.88    5563.8
 -115.90    5561.5
 -116.02    5540.8
 -116.15    5520.0
 -116.20    5512.0
 -116.45    5473.0
 -116.52    5462.5
 -116.76    5425.1
 -116.77    5424.3
 -116.77    5423.6
 -116.79    5422.1
 -116.81    5419.0
 -116.83    5416.0
 -116.85    5413.0
 -116.89    5406.9
 -116.93    5400.7
 -116.97    5394.5
 -117.01    5388.3
 -117.10    5375.9
 -117.18    5363.5
 -117.27    5351.2
 -117.36    5338.8
 -117.44    5326.4
 -117.53    5314.0
 -117.71    5289.3
 -117.89    5264.5
 -118.08    5239.8
 -118.26    5215.0
 -118.45    5190.3
 -118.65    5165.5
 -118.87    5138.2
 -118.88    5136.8
 -118.89    5135.5
 -118.91    5132.7
 -118.96    5127.1
 -119.05    5116.0
 -119.25    5091.3
 -119.46    5066.5
 -119.53    5057.7
 -119.88    5017.0
 -120.24    4977.2
 -120.32    4967.5
 -120.78    4918.0
 -120.98    4896.6
 -121.25    4868.5
 -121.74    4819.0
 -121.77    4816.1
 -122.25    4769.5
 -122.61    4735.7
 -122.78    4720.0
 -123.32    4670.5
 -123.49    4655.6
 -123.90    4621.0
 -124.43    4575.9
 -124.49    4571.5
 -125.11    4522.0
 -125.43    4496.6
 -125.62    4482.6
 -125.75    4472.5
 -126.43    4423.0
 -126.50    4417.8
 -127.13    4373.5
 -127.64    4339.5
 -127.64    4339.4
 -127.87    4324.0
 -128.65    4274.5
 -128.85    4261.9
 -129.46    4225.0
 -130.01    4193.1
 -130.16    4184.8
 -130.32    4175.5
 -131.23    4126.0
 -131.57    4108.5
 -132.20    4076.5
 -132.86    4044.1
 -133.10    4032.8
 -133.22    4027.0
 -133.77    4002.3
 -134.32    3977.5
 -134.78    3957.9
 -135.50    3928.0
 -136.40    3892.6
 -136.64    3883.7
 -136.78    3878.5
 -137.47    3853.8
 -138.17    3829.0
 -138.73    3810.4
 -139.70    3779.5
 -140.39    3759.2
 -141.09    3739.0
 -141.13    3737.7
 -141.41    3730.0
 -142.39    3705.3
 -143.37    3680.5
 -144.02    3665.8
 -144.85    3648.4
 -145.69    3631.0
 -146.29    3619.7
 -146.92    3608.4
 -147.59    3597.0
 -148.27    3585.7
 -148.55    3581.3
 -149.19    3571.7
 -149.98    3561.7
 -150.77    3551.7
 -151.55    3541.7
 -152.34    3531.7
 -153.34    3523.3
 -154.34    3514.9
 -155.33    3506.6
 -156.33    3498.2
 -157.23    3495.5
 -158.12    3492.8
 -159.01    3490.1
 -159.90    3487.4
 -160.80    3484.7
 -161.69    3482.0
 -162.63    3482.0
 -163.57    3482.0
 -164.51    3482.0
 -165.45    3482.0
 -166.39    3482.0
 -167.33    3482.0
 -168.27    3482.0
 -169.22    3482.0
 -170.16    3482.0
 -171.10    3482.0
 -172.04    3482.0
 -172.98    3482.0
 -173.92    3482.0
 -174.86    3482.0
 -175.80    3482.0
 -176.69    3484.7
 -177.59    3487.4
 -178.48    3490.1
 -179.37    3492.8
 -180.26    3495.5
 -181.16    3498.2
 -182.15    3506.6
 -183.15    3514.9
 -184.15    3523.3
 -185.15    3531.7
 -185.94    3541.7
 -186.72    3551.7
 -187.51    3561.7
 -188.30    3571.7
 -188.94    3581.3
 -189.22    3585.7
 -189.89    3597.0
 -190.57    3608.4
 -191.20    3619.7
 -191.80    3631.0
 -192.64    3648.4
 -193.47    3665.8
 -194.12    3680.5
 -195.10    3705.3
 -196.08    3730.0
 -196.36    3737.7
 -196.40    3739.0
 -197.10    3759.2
 -197.79    3779.5
 -198.76    3810.4
 -199.32    3829.0
 -200.02    3853.8
 -200.71    3878.5
 -200.85    3883.7
 -201.09    3892.6
 -201.99    3928.0
 -202.71    3957.9
 -203.17    3977.5
 -203.72    4002.3
 -204.26    4027.0
 -204.39    4032.8
 -204.63    4044.1
 -205.29    4076.5
 -205.92    4108.5
 -206.26    4126.0
 -207.17    4175.5
 -207.33    4184.8
 -207.48    4193.1
 -208.03    4225.0
 -208.64    4261.9
 -208.84    4274.5
 -209.62    4324.0
 -209.85    4339.4
 -209.85    4339.5
 -210.36    4373.5
 -210.99    4417.8
 -211.06    4423.0
 -211.74    4472.5
 -211.87    4482.6
 -212.05    4496.6
 -212.38    4522.0
 -213.00    4571.5
 -213.05    4575.9
 -213.59    4621.0
 -214.00    4655.6
 -214.16    4670.5
 -214.71    4720.0
 -214.88    4735.7
 -215.24    4769.5
 -215.72    4816.1
 -215.75    4819.0
 -216.24    4868.5
 -216.51    4896.6
 -216.71    4918.0
 -217.17    4967.5
 -217.25    4977.2
 -217.61    5017.0
 -217.96    5057.7
 -218.03    5066.5
 -218.24    5091.3
 -218.44    5116.0
 -218.53    5127.1
 -218.58    5132.7
 -218.60    5135.5
 -218.61    5136.8
 -218.62    5138.2
 -218.84    5165.5
 -219.04    5190.3
 -219.23    5215.0
 -219.41    5239.8
 -219.60    5264.5
 -219.78    5289.3
 -219.96    5314.0
 -220.05    5326.4
 -220.13    5338.8
 -220.22    5351.2
 -220.31    5363.5
 -220.39    5375.9
 -220.48    5388.3
 -220.52    5394.5
 -220.56    5400.7
 -220.60    5406.9
 -220.64    5413.0
 -220.66    5416.0
 -220.68    5419.0
 -220.70    5422.1
 -220.71    5423.6
 -220.72    5424.3
 -220.72    5425.1
 -220.97    5462.5
 -221.04    5473.0
 -221.29    5512.0
 -221.34    5520.0
 -221.47    5540.8
 -221.59    5561.5
 -221.61    5563.8
 -221.62    5566.0
 -221.76    5588.6
 -221.89    5611.0
 -221.92    5615.0
 -222.03    5635.0
 -222.15    5654.9
 -222.16    5657.9
 -222.18    5661.0
 -222.28    5677.6
 -222.37    5694.1
 -222.42    5702.6
 -222.44    5706.8
 -222.45    5708.9
 -222.46    5711.0
 -222.47    5712.3
 -222.62    5743.1
 -222.71    5761.0
 -222.77    5773.4
 -222.92    5803.3
 -222.95    5811.0
 -223.05    5832.7
 -223.18    5861.0
 -223.19    5861.7
 -223.32    5890.3
 -223.41    5911.0
 -223.44    5918.6
 -223.50    5932.6
 -223.56    5946.5
 -223.59    5953.8
 -223.61    5957.4
 -223.62    5961.0
 -223.67    5973.3
 -223.72    5985.6
 -223.74    5991.8
 -223.77    5998.0
 -223.81    6010.2
 -223.82    6010.6
 -223.82    6011.0
 -223.86    6022.9
 -223.91    6034.6
 -223.93    6040.7
 -223.95    6046.8
 -224.00    6058.8
 -224.00    6059.9
 -224.01    6061.0
 -224.05    6072.0
 -224.08    6082.8
 -224.11    6088.8
 -224.13    6094.8
 -224.17    6106.6
 -224.18    6108.8
 -224.19    6111.0
 -224.25    6130.2
 -224.29    6142.0
 -224.33    6153.7
 -224.35    6157.3
 -224.36    6161.0
 -224.42    6180.3
 -224.47    6193.2
 -224.51    6206.0
 -224.51    6207.2
 -224.52    6208.5
 -224.56    6222.6
 -224.61    6236.5
 -224.63    6243.8
 -224.64    6247.4
 -224.65    6249.2
 -224.65    6251.0
 -224.72    6270.5
 -224.75    6280.2
 -224.78    6290.0
 -224.79    6293.5
 -224.82    6304.1
 -224.85    6314.8
 -224.87    6320.1
 -224.89    6325.4
 -224.90    6330.7
 -224.91    6333.3
 -224.92    6334.7
 -224.92    6336.0
 -224.94    6343.5
 -224.95    6347.3
 -224.95    6349.1
 -224.95    6350.1
 -224.96    6351.0
 -224.97    6356.0
 -224.98    6361.0
 -224.98    6361.0
 -224.99    6366.0
 -224.99    6368.5
 -225.00    6369.7
 -225.00    6371.0
 -225.00    6371.0
